FP M5 Header Date: 8/6/2013
 Resolution (nm): 1.000000
Start Wavelength (nm): 380.000000
End: Wavelength (nm): 530.000000
Constant Wavelength (nm): 360.000000
Integration Time (ms): 100.000000
 Spectrum: Emisson
Sample:B
-1.931
-1.931
-1.931
-1.931
-1.931
-1.931
-1.931
-1.932
-1.931
-1.932
-1.932
-1.931
-1.931
-1.931
-1.931
-1.932
-1.931
-1.931
-1.931
-1.931
-1.930
-1.931
-1.931
-1.931
-1.931
-1.931
-1.931
-1.931
-1.931
-1.931
-1.931
-1.931
-1.931
-1.931
-1.931
-1.931
-1.931
-1.931
-1.931
-1.931
-1.931
-1.931
-1.931
-1.931
-1.931
-1.932
-1.932
-1.930
-1.931
-1.931
-1.932
-1.931
-1.931
-1.931
-1.931
-1.931
-1.931
-1.932
-1.932
-1.931
-1.931
-1.931
-1.932
-1.932
-1.931
-1.932
-1.931
-1.931
-1.931
-1.931
-1.931
-1.931
-1.932
-1.931
-1.931
-1.931
-1.931
-1.931
-1.931
-1.931
-1.931
-1.931
-1.931
-1.931
-1.931
-1.930
-1.931
-1.930
-1.930
-1.931
-1.931
-1.931
-1.931
-1.931
-1.931
-1.931
-1.931
-1.931
-1.931
-1.931
-1.931
-1.931
-1.931
-1.931
-1.930
-1.931
-1.932
-1.931
-1.930
-1.931
-1.932
-1.931
-1.930
-1.930
-1.931
-1.930
-1.931
-1.931
-1.932
-1.931
-1.930
-1.931
-1.931
-1.931
-1.931
-1.930
-1.930
-1.931
-1.930
-1.931
-1.930
-1.930
-1.931
-1.930
-1.931
-1.929
-1.930
-1.931
-1.931
-1.931
-1.932
-1.932
-1.931
-1.931
-1.931
-1.931
-1.930
-1.930
-1.931
-1.931
-1.931
