FP M5 Header Date: 8/6/2013
 Resolution (nm): 1.000000
Start Wavelength (nm): 380.000000
End: Wavelength (nm): 530.000000
Constant Wavelength (nm): 360.000000
Integration Time (ms): 100.000000
 Spectrum: Emisson
Sample:B
-1.821
-1.824
-1.838
-1.838
-1.836
-1.831
-1.830
-1.846
-1.822
-1.839
-1.837
-1.837
-1.838
-1.861
-1.844
-1.820
-1.831
-1.835
-1.843
-1.833
-1.829
-1.823
-1.834
-1.824
-1.814
-1.812
-1.843
-1.828
-1.835
-1.835
-1.834
-1.839
-1.844
-1.832
-1.820
-1.832
-1.844
-1.856
-1.851
-1.851
-1.852
-1.832
-1.845
-1.862
-1.855
-1.850
-1.861
-1.841
-1.843
-1.832
-1.864
-1.862
-1.846
-1.818
-1.851
-1.840
-1.843
-1.835
-1.862
-1.833
-1.841
-1.841
-1.850
-1.824
-1.833
-1.853
-1.848
-1.816
-1.792
-1.827
-1.821
-1.857
-1.827
-1.795
-1.830
-1.820
-1.834
-1.780
-1.791
-1.765
-1.807
-1.785
-1.823
-1.817
-1.788
-1.780
-1.802
-1.795
-1.816
-1.796
-1.805
-1.798
-1.786
-1.793
-1.782
-1.775
-1.779
-1.798
-1.792
-1.796
-1.802
-1.780
-1.803
-1.780
-1.769
-1.793
-1.771
-1.797
-1.798
-1.789
-1.808
-1.784
-1.793
-1.777
-1.784
-1.807
-1.767
-1.792
-1.805
-1.774
-1.768
-1.790
-1.796
-1.793
-1.780
-1.771
-1.792
-1.779
-1.796
-1.775
-1.790
-1.801
-1.753
-1.768
-1.770
-1.812
-1.783
-1.782
-1.786
-1.785
-1.771
-1.786
-1.780
-1.786
-1.788
-1.780
-1.759
-1.777
-1.805
-1.777
-1.780
