FP M5 Header Date: 8/6/2013
 Resolution (nm): 1.000000
Start Wavelength (nm): 380.000000
End: Wavelength (nm): 530.000000
Constant Wavelength (nm): 360.000000
Integration Time (ms): 100.000000
 Spectrum: Emisson
Sample:A
-1.885
-1.877
-1.872
-1.855
-1.844
-1.833
-1.819
-1.804
-1.788
-1.767
-1.750
-1.729
-1.711
-1.685
-1.660
-1.637
-1.608
-1.583
-1.558
-1.530
-1.518
-1.488
-1.469
-1.439
-1.422
-1.412
-1.401
-1.385
-1.375
-1.367
-1.355
-1.357
-1.347
-1.333
-1.323
-1.314
-1.297
-1.284
-1.271
-1.250
-1.242
-1.224
-1.198
-1.186
-1.172
-1.162
-1.152
-1.150
-1.144
-1.143
-1.152
-1.161
-1.168
-1.175
-1.186
-1.199
-1.233
-1.235
-1.248
-1.261
-1.269
-1.283
-1.294
-1.301
-1.310
-1.321
-1.325
-1.329
-1.334
-1.335
-1.338
-1.342
-1.348
-1.354
-1.359
-1.363
-1.374
-1.388
-1.392
-1.390
-1.400
-1.410
-1.431
-1.444
-1.453
-1.472
-1.485
-1.496
-1.521
-1.531
-1.539
-1.551
-1.563
-1.578
-1.581
-1.594
-1.596
-1.605
-1.610
-1.616
-1.626
-1.633
-1.637
-1.646
-1.649
-1.663
-1.665
-1.673
-1.679
-1.689
-1.694
-1.702
-1.709
-1.715
-1.722
-1.731
-1.737
-1.743
-1.752
-1.759
-1.765
-1.771
-1.778
-1.782
-1.787
-1.793
-1.795
-1.802
-1.808
-1.812
-1.816
-1.820
-1.825
-1.827
-1.831
-1.836
-1.840
-1.840
-1.843
-1.846
-1.850
-1.851
-1.854
-1.858
-1.860
-1.863
-1.864
-1.868
-1.871
-1.873
-1.875
